%OpenBCI Raw EEG Data
%
%Sample Rate = 1000.0 Hz
%First Column = SampleIndex
%Last Column = Timestamp 
%Other Columns = EEG data in microvolts followed by Accel Data (in G) interleaved with Aux Data
171, 29944.97, 11788.18, 14137.48, 18266.83, 29635.01, 36442.11, 2668.60, 27614.75, 0.000, 0.000, 0.000, 22:40:51.791
0, 0.00, 0.00, 0.00, 0.00, 0.00, 0.00, 0.00, 0.00, 0.080, 0.774, 0.620, 22:40:51.811
1, 25511.74, 12460.40, 14377.89, 18533.75, 29925.81, 36879.46, 2871.98, 27477.63, 0.000, 0.000, 0.000, 22:40:51.811
2, 26921.00, 12639.40, 14427.31, 18529.26, 29904.58, 36787.35, 2795.78, 27375.79, 0.000, 0.000, 0.000, 22:40:51.811
3, 27712.94, 12701.98, 14401.41, 18553.36, 29888.35, 36761.40, 2763.99, 27333.59, 0.000, 0.000, 0.000, 22:40:51.812
4, 27792.40, 12706.54, 14382.77, 18611.20, 29885.91, 36791.66, 2781.74, 27358.06, 0.000, 0.000, 0.000, 22:40:51.812
5, 28608.47, 12824.18, 14437.30, 18706.71, 29892.60, 36758.70, 2759.39, 27319.37, 0.000, 0.000, 0.000, 22:40:51.812
6, 28401.02, 12749.32, 14364.42, 18769.83, 29892.30, 36806.68, 2784.11, 27357.48, 0.000, 0.000, 0.000, 22:40:51.812
7, 27820.16, 12682.13, 14364.64, 18829.09, 29917.65, 36871.91, 2839.59, 27420.61, 0.000, 0.000, 0.000, 22:40:51.813
8, 27505.41, 12646.53, 14380.75, 18915.48, 29947.00, 36920.10, 2886.01, 27468.64, 0.000, 0.000, 0.000, 22:40:51.813
9, 27208.35, 12594.67, 14390.48, 18990.89, 29974.81, 36964.87, 2926.25, 27512.16, 0.000, 0.000, 0.000, 22:40:51.813
10, 26856.47, 12521.76, 14394.99, 19062.13, 29999.73, 37008.77, 2969.45, 27562.54, 0.000, 0.000, 0.000, 22:40:51.813
11, 26353.78, 12428.51, 14377.27, 19058.93, 30007.48, 37031.61, 2990.44, 27589.25, 0.000, 0.000, 0.000, 22:40:51.813
12, 25625.89, 12323.66, 14346.89, 18993.44, 30006.86, 37051.77, 3007.67, 27617.90, 0.000, 0.000, 0.000, 22:40:51.814
13, 24790.79, 12217.08, 14301.23, 18908.53, 29999.77, 37075.91, 3028.75, 27652.53, 0.000, 0.000, 0.000, 22:40:51.814
14, 23749.04, 12091.94, 14243.74, 18845.69, 29980.53, 37119.90, 3070.82, 27720.21, 0.000, 0.000, 0.000, 22:40:51.814
15, 23513.90, 12066.50, 14202.43, 18806.60, 29925.14, 37063.32, 3023.95, 27684.65, 0.000, 0.000, 0.000, 22:40:51.814
16, 23650.36, 12270.35, 14382.25, 18444.12, 29996.71, 36974.68, 2927.72, 27525.41, 0.000, 0.000, 0.000, 22:40:51.814
17, 24576.95, 12385.95, 14411.04, 18519.43, 29990.77, 36976.13, 2961.72, 27562.23, 0.000, 0.000, 0.000, 22:40:51.815
18, 25867.07, 12515.08, 14405.23, 18543.52, 29931.22, 36854.07, 2860.67, 27447.40, 0.000, 0.000, 0.000, 22:40:51.831
19, 27233.05, 12655.62, 14420.88, 18565.89, 29897.13, 36760.95, 2776.73, 27341.08, 0.000, 0.000, 0.000, 22:40:51.831
20, 27672.98, 12657.64, 14358.60, 18597.03, 29869.51, 36754.34, 2756.80, 27324.20, 0.000, 0.000, 0.000, 22:40:51.831
21, 27894.39, 12718.83, 14396.69, 18633.26, 29881.67, 36764.62, 2754.96, 27320.96, 0.000, 0.000, 0.000, 22:40:51.831
22, 28596.02, 12809.43, 14432.61, 18712.79, 29898.03, 36758.80, 2748.33, 27304.94, 0.000, 0.000, 0.000, 22:40:51.831
23, 28075.64, 12702.61, 14360.64, 18789.23, 29904.20, 36834.02, 2804.50, 27377.85, 0.000, 0.000, 0.000, 22:40:51.832
24, 27606.50, 12656.25, 14367.34, 18858.26, 29930.79, 36887.48, 2856.31, 27432.92, 0.000, 0.000, 0.000, 22:40:51.832
25, 27314.19, 12615.06, 14373.65, 18942.57, 29956.99, 36931.20, 2898.10, 27478.43, 0.000, 0.000, 0.000, 22:40:51.832
26, 27005.76, 12563.22, 14387.26, 19014.90, 29986.63, 36977.34, 2937.62, 27523.47, 0.000, 0.000, 0.000, 22:40:51.832
27, 26634.31, 12491.14, 14386.54, 19063.65, 30007.35, 37014.24, 2972.07, 27563.23, 0.000, 0.000, 0.000, 22:40:51.832
28, 26071.34, 12392.52, 14354.92, 19040.62, 30010.55, 37037.62, 2991.13, 27590.63, 0.000, 0.000, 0.000, 22:40:51.832
29, 25333.38, 12296.10, 14320.47, 18957.61, 30003.77, 37051.64, 3003.98, 27614.33, 0.000, 0.000, 0.000, 22:40:51.833
30, 24373.32, 12181.03, 14268.24, 18861.54, 29995.26, 37088.20, 3029.85, 27659.68, 0.000, 0.000, 0.000, 22:40:51.833
31, 23456.52, 12112.37, 14254.47, 18762.81, 29990.47, 37117.66, 3049.60, 27698.57, 0.000, 0.000, 0.000, 22:40:51.833
32, 23447.67, 12161.90, 14287.88, 18678.30, 29981.15, 37074.34, 3020.39, 27662.36, 0.000, 0.000, 0.000, 22:40:51.833
33, 24019.79, 12264.65, 14310.95, 18560.33, 29953.95, 36981.70, 2951.84, 27573.16, 0.000, 0.000, 0.000, 22:40:51.833
34, 24968.31, 12394.38, 14349.75, 18530.11, 29937.95, 36910.95, 2901.41, 27503.17, 0.000, 0.000, 0.000, 22:40:51.833
35, 26358.14, 12572.72, 14405.21, 18519.94, 29916.20, 36813.95, 2828.34, 27402.08, 0.000, 0.000, 0.000, 22:40:51.833
36, 27530.82, 12691.68, 14410.64, 18547.90, 29897.71, 36756.59, 2774.63, 27332.16, 0.000, 0.000, 0.000, 22:40:51.834
37, 27678.46, 12681.19, 14362.72, 18581.27, 29884.48, 36783.06, 2779.24, 27344.03, 0.000, 0.000, 0.000, 22:40:51.834
38, 28254.64, 12777.67, 14420.92, 18675.62, 29894.21, 36777.98, 2778.39, 27333.68, 0.068, 0.790, 0.602, 22:40:51.851
39, 28586.45, 12776.82, 14383.68, 18749.51, 29889.82, 36784.33, 2773.43, 27325.01, 0.000, 0.000, 0.000, 22:40:51.852
40, 27930.09, 12679.36, 14345.55, 18811.63, 29907.28, 36862.23, 2831.54, 27400.40, 0.000, 0.000, 0.000, 22:40:51.852
41, 27532.68, 12647.44, 14353.82, 18881.43, 29930.75, 36904.63, 2869.49, 27442.09, 0.000, 0.000, 0.000, 22:40:51.852
42, 27202.16, 12622.21, 14382.10, 18938.39, 29967.79, 36951.63, 2913.53, 27483.12, 0.000, 0.000, 0.000, 22:40:51.852
43, 26900.79, 12564.76, 14390.46, 19036.89, 30000.58, 37006.35, 2967.91, 27544.37, 0.000, 0.000, 0.000, 22:40:51.853
44, 26492.92, 12480.95, 14378.34, 19069.97, 30015.58, 37034.52, 2996.88, 27578.74, 0.000, 0.000, 0.000, 22:40:51.853
45, 25833.99, 12371.49, 14345.53, 19025.22, 30013.59, 37059.59, 3017.66, 27611.69, 0.000, 0.000, 0.000, 22:40:51.853
46, 25076.51, 12278.30, 14315.33, 18939.26, 30007.19, 37078.48, 3032.26, 27637.89, 0.000, 0.000, 0.000, 22:40:51.853
47, 24001.32, 12146.52, 14255.63, 18843.99, 29997.69, 37121.75, 3063.84, 27688.36, 0.000, 0.000, 0.000, 22:40:51.853
48, 23342.24, 12117.06, 14265.80, 18751.17, 29992.98, 37123.99, 3063.26, 27699.13, 0.000, 0.000, 0.000, 22:40:51.854
49, 23551.00, 12183.13, 14298.97, 18647.14, 29971.52, 37052.44, 3012.14, 27635.76, 0.000, 0.000, 0.000, 22:40:51.854
50, 24236.09, 12292.81, 14324.54, 18560.29, 29945.01, 36964.71, 2945.65, 27551.83, 0.000, 0.000, 0.000, 22:40:51.854
51, 25292.56, 12439.44, 14369.27, 18540.46, 29928.96, 36882.79, 2881.90, 27467.14, 0.000, 0.000, 0.000, 22:40:51.854
52, 26724.33, 12615.12, 14411.71, 18539.63, 29906.32, 36781.45, 2801.57, 27355.38, 0.000, 0.000, 0.000, 22:40:51.854
53, 27584.42, 12684.12, 14385.36, 18566.25, 29885.38, 36748.59, 2765.85, 27305.09, 0.000, 0.000, 0.000, 22:40:51.855
54, 27641.35, 12689.78, 14367.10, 18611.40, 29886.36, 36781.05, 2782.81, 27325.19, 0.000, 0.000, 0.000, 22:40:51.855
55, 28448.92, 12812.85, 14431.85, 18709.95, 29896.66, 36754.29, 2764.51, 27293.47, 0.000, 0.000, 0.000, 22:40:51.855
56, 28323.10, 12746.28, 14356.91, 18779.29, 29888.06, 36794.41, 2781.29, 27321.41, 0.000, 0.000, 0.000, 22:40:51.855
57, 27718.20, 12678.04, 14344.14, 18837.33, 29906.16, 36858.63, 2826.71, 27381.33, 0.000, 0.000, 0.000, 22:40:51.855
58, 27367.23, 12648.87, 14359.18, 18898.98, 29932.56, 36901.86, 2861.31, 27422.86, 0.000, 0.000, 0.000, 22:40:51.871
59, 27049.43, 12600.88, 14366.20, 18962.86, 29954.15, 36943.05, 2901.39, 27470.03, 0.000, 0.000, 0.000, 22:40:51.872
60, 26698.80, 12522.61, 14365.78, 19031.91, 29974.09, 36985.79, 2941.62, 27519.91, 0.000, 0.000, 0.000, 22:40:51.872
61, 26208.67, 12425.25, 14341.62, 19022.54, 29976.64, 36999.36, 2954.14, 27541.33, 0.000, 0.000, 0.000, 22:40:51.872
62, 25466.28, 12333.45, 14332.23, 18935.75, 29993.71, 37029.26, 2983.20, 27572.31, 0.000, 0.000, 0.000, 22:40:51.872
63, 24675.70, 12233.65, 14291.79, 18867.40, 29995.55, 37068.71, 3025.06, 27626.67, 0.000, 0.000, 0.000, 22:40:51.872
64, 23602.73, 12120.95, 14241.06, 18780.16, 29991.64, 37114.13, 3062.95, 27684.45, 0.000, 0.000, 0.000, 22:40:51.872
65, 23268.19, 12142.90, 14279.46, 18707.83, 29996.89, 37105.04, 3062.21, 27683.93, 0.000, 0.000, 0.000, 22:40:51.873
66, 23699.49, 12233.40, 14307.82, 18612.36, 29973.04, 37020.86, 2999.81, 27606.79, 0.000, 0.000, 0.000, 22:40:51.873
67, 24517.16, 12355.06, 14341.75, 18568.73, 29952.65, 36948.30, 2938.00, 27530.02, 0.000, 0.000, 0.000, 22:40:51.873
68, 25749.95, 12519.73, 14393.32, 18562.68, 29931.26, 36856.86, 2867.64, 27431.94, 0.000, 0.000, 0.000, 22:40:51.873
69, 27144.05, 12675.99, 14424.03, 18585.79, 29907.39, 36769.71, 2797.88, 27335.06, 0.000, 0.000, 0.000, 22:40:51.873
70, 27646.16, 12692.84, 14372.33, 18612.99, 29883.68, 36760.77, 2773.27, 27313.58, 0.000, 0.000, 0.000, 22:40:51.874
71, 27853.27, 12736.49, 14392.09, 18670.30, 29888.66, 36777.65, 2779.10, 27324.31, 0.000, 0.000, 0.000, 22:40:51.874
72, 28595.59, 12822.97, 14419.40, 18746.47, 29891.52, 36752.68, 2755.28, 27290.47, 0.000, 0.000, 0.000, 22:40:51.874
73, 28085.35, 12714.03, 14346.02, 18802.46, 29894.18, 36824.16, 2802.60, 27357.01, 0.000, 0.000, 0.000, 22:40:51.874
74, 27566.09, 12662.02, 14354.22, 18853.74, 29916.71, 36881.63, 2850.54, 27413.50, 0.000, 0.000, 0.000, 22:40:51.875
75, 27230.84, 12620.15, 14366.09, 18916.73, 29938.91, 36926.04, 2882.70, 27451.65, 0.000, 0.000, 0.000, 22:40:51.875
76, 26895.09, 12561.97, 14376.75, 18974.13, 29964.66, 36966.14, 2917.51, 27490.37, 0.000, 0.000, 0.000, 22:40:51.875
77, 26507.80, 12480.77, 14374.45, 19020.93, 29987.41, 37002.73, 2958.39, 27531.58, 0.062, 0.802, 0.588, 22:40:51.875
78, 25953.08, 12383.22, 14351.12, 18999.25, 29995.28, 37025.39, 2983.78, 27557.38, 0.000, 0.000, 0.000, 22:40:51.892
79, 25233.87, 12286.11, 14316.36, 18932.24, 29988.75, 37042.34, 2997.84, 27580.80, 0.000, 0.000, 0.000, 22:40:51.892
80, 24320.93, 12169.72, 14257.64, 18854.37, 29975.32, 37072.47, 3018.18, 27617.39, 0.000, 0.000, 0.000, 22:40:51.892
81, 23380.97, 12095.89, 14233.25, 18758.21, 29967.12, 37094.95, 3033.89, 27648.08, 0.000, 0.000, 0.000, 22:40:51.892
82, 23317.58, 12160.22, 14288.22, 18666.86, 29972.50, 37061.63, 3012.21, 27614.37, 0.000, 0.000, 0.000, 22:40:51.892
83, 23898.95, 12266.37, 14317.30, 18585.38, 29947.83, 36982.50, 2955.10, 27542.58, 0.000, 0.000, 0.000, 22:40:51.892
84, 24808.74, 12398.65, 14357.53, 18565.36, 29935.42, 36911.71, 2897.48, 27470.18, 0.000, 0.000, 0.000, 22:40:51.893
85, 26187.71, 12579.16, 14409.12, 18575.77, 29912.51, 36812.99, 2822.00, 27370.89, 0.000, 0.000, 0.000, 22:40:51.893
86, 27399.57, 12702.79, 14411.38, 18601.97, 29887.72, 36742.20, 2760.31, 27288.08, 0.000, 0.000, 0.000, 22:40:51.893
87, 27581.81, 12697.15, 14362.31, 18625.35, 29877.22, 36762.45, 2765.22, 27298.52, 0.000, 0.000, 0.000, 22:40:51.893
88, 28085.66, 12789.71, 14428.14, 18700.56, 29895.79, 36762.56, 2773.67, 27295.99, 0.000, 0.000, 0.000, 22:40:51.893
89, 28499.84, 12797.18, 14393.47, 18775.33, 29891.79, 36762.38, 2768.24, 27287.66, 0.000, 0.000, 0.000, 22:40:51.893
90, 27829.35, 12690.63, 14349.51, 18817.15, 29904.87, 36838.02, 2819.29, 27356.77, 0.000, 0.000, 0.000, 22:40:51.894
91, 27405.27, 12644.25, 14360.95, 18871.71, 29929.86, 36887.08, 2859.26, 27403.10, 0.000, 0.000, 0.000, 22:40:51.894
92, 27075.18, 12593.44, 14366.43, 18932.84, 29952.59, 36927.45, 2894.73, 27443.27, 0.000, 0.000, 0.000, 22:40:51.894
93, 26730.88, 12526.01, 14371.93, 18996.43, 29977.26, 36970.86, 2934.76, 27487.79, 0.000, 0.000, 0.000, 22:40:51.894
94, 26297.25, 12443.91, 14365.20, 19009.67, 29990.70, 36994.21, 2958.83, 27513.97, 0.000, 0.000, 0.000, 22:40:51.894
95, 25662.13, 12343.91, 14336.16, 18971.20, 29993.02, 37017.19, 2984.34, 27544.66, 0.000, 0.000, 0.000, 22:40:51.894
96, 24929.97, 12258.61, 14307.19, 18898.31, 29989.56, 37037.38, 3004.97, 27572.73, 0.000, 0.000, 0.000, 22:40:51.895
97, 23880.96, 12142.07, 14254.49, 18811.72, 29984.15, 37085.54, 3034.45, 27622.04, 0.000, 0.000, 0.000, 22:40:51.895
98, 23200.28, 12117.98, 14264.30, 18735.86, 29983.90, 37101.86, 3044.49, 27643.54, 0.000, 0.000, 0.000, 22:40:51.912
99, 23404.87, 12197.50, 14308.67, 18656.22, 29978.79, 37045.42, 3007.09, 27596.45, 0.000, 0.000, 0.000, 22:40:51.912
100, 24114.07, 12315.39, 14337.68, 18591.31, 29954.51, 36968.06, 2950.01, 27524.29, 0.000, 0.000, 0.000, 22:40:51.912
101, 25165.56, 12460.02, 14378.32, 18580.22, 29935.89, 36890.12, 2887.87, 27443.16, 0.000, 0.000, 0.000, 22:40:51.913
102, 26598.64, 12652.18, 14441.57, 18578.14, 29922.08, 36799.93, 2814.51, 27343.69, 0.000, 0.000, 0.000, 22:40:51.913
103, 27548.23, 12721.12, 14410.12, 18625.46, 29893.51, 36761.13, 2775.06, 27298.38, 0.000, 0.000, 0.000, 22:40:51.913
104, 27592.33, 12714.92, 14378.25, 18656.55, 29885.64, 36785.02, 2778.75, 27309.05, 0.000, 0.000, 0.000, 22:40:51.913
105, 28353.28, 12832.14, 14447.56, 18739.01, 29898.88, 36759.48, 2763.86, 27277.96, 0.000, 0.000, 0.000, 22:40:51.913
106, 28287.27, 12770.13, 14376.22, 18794.53, 29895.52, 36795.13, 2782.43, 27301.63, 0.000, 0.000, 0.000, 22:40:51.914
107, 27643.65, 12689.96, 14358.56, 18838.16, 29913.14, 36862.41, 2834.83, 27368.73, 0.000, 0.000, 0.000, 22:40:51.914
108, 27279.72, 12655.07, 14371.88, 18900.48, 29936.72, 36906.11, 2870.32, 27413.27, 0.000, 0.000, 0.000, 22:40:51.914
109, 26960.88, 12603.72, 14375.17, 18964.81, 29957.01, 36944.66, 2905.93, 27452.26, 0.000, 0.000, 0.000, 22:40:51.914
110, 26582.53, 12536.76, 14379.97, 19008.50, 29982.27, 36980.82, 2939.57, 27488.98, 0.000, 0.000, 0.000, 22:40:51.914
111, 26104.20, 12452.96, 14370.92, 19007.65, 30000.04, 37013.62, 2974.44, 27532.23, 0.000, 0.000, 0.000, 22:40:51.915
112, 25407.56, 12347.17, 14338.35, 18956.09, 30001.92, 37042.47, 3000.23, 27568.15, 0.000, 0.000, 0.000, 22:40:51.915
113, 24637.57, 12245.42, 14295.04, 18890.29, 29994.92, 37068.45, 3021.91, 27605.43, 0.000, 0.000, 0.000, 22:40:51.915
114, 23544.07, 12130.76, 14244.68, 18789.46, 29989.45, 37107.05, 3047.41, 27649.00, 0.000, 0.000, 0.000, 22:40:51.915
115, 23183.74, 12140.44, 14278.41, 18738.94, 29989.45, 37108.28, 3059.86, 27665.07, 0.000, 0.000, 0.000, 22:40:51.915
116, 23706.19, 12177.83, 14231.71, 18746.09, 29914.93, 37014.64, 3002.35, 27609.07, 0.000, 0.000, 0.000, 22:40:51.915
117, 24235.12, 12389.68, 14366.96, 18453.02, 29960.12, 36894.91, 2873.72, 27412.67, 0.058, 0.806, 0.580, 22:40:51.916
118, 25491.49, 12579.36, 14474.05, 18511.00, 29986.07, 36895.49, 2907.05, 27431.02, 0.000, 0.000, 0.000, 22:40:51.935
119, 26999.01, 12692.06, 14434.04, 18606.24, 29919.33, 36789.92, 2820.88, 27336.92, 0.000, 0.000, 0.000, 22:40:51.935
120, 27590.23, 12700.17, 14365.60, 18645.22, 29877.60, 36759.68, 2777.47, 27297.42, 0.000, 0.000, 0.000, 22:40:51.935
121, 27747.52, 12718.86, 14369.51, 18693.72, 29871.85, 36767.41, 2774.48, 27298.88, 0.000, 0.000, 0.000, 22:40:51.935
122, 28483.74, 12814.99, 14420.47, 18739.39, 29887.77, 36737.08, 2745.64, 27250.82, 0.000, 0.000, 0.000, 22:40:51.935
123, 28011.70, 12709.49, 14356.50, 18784.61, 29901.13, 36814.08, 2798.53, 27318.77, 0.000, 0.000, 0.000, 22:40:51.936
124, 27478.94, 12647.26, 14355.52, 18842.10, 29920.56, 36872.09, 2849.51, 27378.76, 0.000, 0.000, 0.000, 22:40:51.936
125, 27146.51, 12600.64, 14362.29, 18913.29, 29941.37, 36915.94, 2888.02, 27423.55, 0.000, 0.000, 0.000, 22:40:51.936
126, 26811.72, 12540.24, 14367.83, 18973.72, 29965.15, 36955.57, 2924.95, 27466.92, 0.000, 0.000, 0.000, 22:40:51.936
127, 26419.83, 12465.32, 14370.83, 19014.92, 29989.85, 36995.29, 2964.69, 27509.72, 0.000, 0.000, 0.000, 22:40:51.936
128, 25878.09, 12371.09, 14348.84, 18998.51, 29999.97, 37020.86, 2991.85, 27544.88, 0.000, 0.000, 0.000, 22:40:51.936
129, 25156.13, 12274.21, 14318.86, 18934.77, 29999.82, 37043.50, 3013.53, 27577.20, 0.000, 0.000, 0.000, 22:40:51.936
130, 24253.81, 12166.59, 14270.11, 18851.30, 29994.39, 37081.23, 3036.06, 27617.88, 0.000, 0.000, 0.000, 22:40:51.936
131, 23279.99, 12085.57, 14244.19, 18759.46, 29987.10, 37116.10, 3058.25, 27659.63, 0.000, 0.000, 0.000, 22:40:51.937
132, 23192.17, 12133.84, 14283.57, 18685.63, 29982.54, 37081.34, 3033.60, 27631.94, 0.000, 0.000, 0.000, 22:40:51.937
133, 23749.96, 12239.48, 14311.75, 18594.33, 29958.82, 36995.64, 2972.13, 27547.41, 0.000, 0.000, 0.000, 22:40:51.937
134, 24651.63, 12364.43, 14345.53, 18570.74, 29939.63, 36922.96, 2913.86, 27470.05, 0.000, 0.000, 0.000, 22:40:51.937
135, 26002.48, 12541.63, 14401.38, 18563.44, 29917.94, 36822.51, 2833.49, 27362.54, 0.000, 0.000, 0.000, 22:40:51.937
136, 27270.83, 12667.76, 14409.70, 18595.04, 29893.11, 36752.93, 2771.55, 27281.91, 0.000, 0.000, 0.000, 22:40:51.937
137, 27505.83, 12663.78, 14355.65, 18623.23, 29877.87, 36765.51, 2766.45, 27283.03, 0.000, 0.000, 0.000, 22:40:51.937
138, 27944.78, 12754.89, 14420.34, 18689.86, 29896.46, 36770.72, 2774.43, 27282.94, 0.000, 0.000, 0.000, 22:40:51.952
139, 28437.88, 12778.45, 14400.13, 18766.88, 29896.15, 36767.34, 2773.36, 27277.24, 0.000, 0.000, 0.000, 22:40:51.952
140, 27775.01, 12671.23, 14348.21, 18809.51, 29909.45, 36841.60, 2831.92, 27350.76, 0.000, 0.000, 0.000, 22:40:51.953
141, 27358.04, 12618.10, 14348.66, 18884.05, 29925.41, 36891.29, 2881.34, 27411.57, 0.000, 0.000, 0.000, 22:40:51.953
142, 27000.21, 12574.82, 14358.83, 18914.18, 29948.27, 36922.15, 2903.20, 27437.30, 0.000, 0.000, 0.000, 22:40:51.953
143, 26623.45, 12529.45, 14390.86, 18953.07, 29990.29, 36976.38, 2952.87, 27488.67, 0.000, 0.000, 0.000, 22:40:51.954
144, 26252.10, 12434.03, 14365.04, 19025.27, 29994.27, 37014.53, 2994.87, 27546.76, 0.000, 0.000, 0.000, 22:40:51.954
145, 25612.04, 12336.11, 14328.79, 18969.28, 29991.70, 37020.50, 2992.65, 27550.63, 0.000, 0.000, 0.000, 22:40:51.954
146, 24870.49, 12267.46, 14323.85, 18885.55, 30004.06, 37053.49, 3021.87, 27583.64, 0.000, 0.000, 0.000, 22:40:51.954
147, 23861.63, 12147.46, 14254.74, 18821.76, 29994.61, 37099.18, 3059.89, 27641.42, 0.000, 0.000, 0.000, 22:40:51.955
148, 23123.62, 12117.15, 14257.48, 18742.63, 29995.23, 37114.71, 3073.97, 27665.63, 0.000, 0.000, 0.000, 22:40:51.955
149, 23301.16, 12191.89, 14292.33, 18665.79, 29981.20, 37058.10, 3033.80, 27614.98, 0.000, 0.000, 0.000, 22:40:51.955
150, 23990.55, 12310.47, 14321.46, 18590.53, 29955.43, 36973.83, 2968.80, 27528.74, 0.000, 0.000, 0.000, 22:40:51.955
151, 25018.26, 12447.64, 14365.15, 18578.63, 29936.72, 36896.00, 2906.69, 27447.31, 0.000, 0.000, 0.000, 22:40:51.955
152, 26457.49, 12622.23, 14416.83, 18582.08, 29913.70, 36795.30, 2825.51, 27340.43, 0.000, 0.000, 0.000, 22:40:51.956
153, 27444.54, 12701.24, 14400.92, 18611.47, 29893.40, 36753.02, 2782.03, 27286.99, 0.000, 0.000, 0.000, 22:40:51.956
154, 27499.15, 12688.12, 14366.32, 18645.00, 29887.61, 36785.67, 2794.53, 27308.22, 0.000, 0.000, 0.000, 22:40:51.956
155, 28224.91, 12795.64, 14435.74, 18723.63, 29900.69, 36758.58, 2777.87, 27278.87, 0.000, 0.000, 0.000, 22:40:51.956
156, 28246.55, 12742.21, 14377.38, 18782.60, 29900.11, 36793.29, 2794.71, 27303.73, 0.054, 0.812, 0.582, 22:40:51.957
157, 27598.77, 12652.25, 14351.03, 18832.53, 29916.89, 36864.69, 2848.93, 27376.37, 0.000, 0.000, 0.000, 22:40:51.957
158, 27224.07, 12611.03, 14360.50, 18891.60, 29938.95, 36905.55, 2885.50, 27420.20, 0.000, 0.000, 0.000, 22:40:51.972
159, 26896.70, 12563.74, 14368.19, 18946.61, 29958.29, 36946.29, 2919.25, 27458.36, 0.000, 0.000, 0.000, 22:40:51.972
160, 26539.07, 12497.37, 14368.66, 19003.36, 29980.57, 36987.02, 2956.20, 27499.48, 0.000, 0.000, 0.000, 22:40:51.972
161, 26083.35, 12411.83, 14347.76, 19011.74, 29984.95, 37010.15, 2978.75, 27527.29, 0.000, 0.000, 0.000, 22:40:51.972
162, 25376.67, 12313.87, 14315.42, 18942.39, 29984.62, 37024.61, 2989.68, 27546.27, 0.000, 0.000, 0.000, 22:40:51.972
163, 24599.86, 12226.76, 14284.57, 18866.50, 29985.54, 37050.03, 3012.39, 27579.37, 0.000, 0.000, 0.000, 22:40:51.973
164, 23513.54, 12110.60, 14225.77, 18780.00, 29975.95, 37088.67, 3037.74, 27623.80, 0.000, 0.000, 0.000, 22:40:51.973
165, 23081.44, 12124.77, 14256.34, 18708.95, 29976.93, 37085.75, 3036.73, 27625.82, 0.000, 0.000, 0.000, 22:40:51.973
166, 23455.67, 12210.96, 14289.98, 18627.07, 29959.47, 37012.95, 2985.37, 27557.15, 0.000, 0.000, 0.000, 22:40:51.973
167, 24230.61, 12333.22, 14327.20, 18567.19, 29941.41, 36934.38, 2924.19, 27474.23, 0.000, 0.000, 0.000, 22:40:51.973
168, 25411.05, 12489.77, 14378.05, 18560.82, 29919.78, 36845.80, 2856.75, 27383.99, 0.000, 0.000, 0.000, 22:40:51.973
169, 26841.52, 12647.60, 14411.98, 18580.00, 29893.42, 36751.27, 2780.69, 27283.57, 0.000, 0.000, 0.000, 22:40:51.973
170, 27471.32, 12681.13, 14366.09, 18600.23, 29868.81, 36732.07, 2747.25, 27250.02, 0.000, 0.000, 0.000, 22:40:51.974
171, 27593.21, 12705.25, 14371.12, 18644.62, 29872.39, 36759.39, 2757.29, 27267.21, 0.000, 0.000, 0.000, 22:40:51.974
172, 28405.42, 12806.05, 14414.64, 18735.05, 29879.63, 36735.63, 2743.05, 27238.08, 0.000, 0.000, 0.000, 22:40:51.974
173, 28004.52, 12710.95, 14340.92, 18787.04, 29880.06, 36800.20, 2782.19, 27290.94, 0.000, 0.000, 0.000, 22:40:51.974
174, 27439.92, 12656.32, 14346.82, 18833.22, 29905.78, 36862.25, 2834.94, 27356.21, 0.000, 0.000, 0.000, 22:40:51.974
175, 27089.55, 12615.46, 14359.32, 18891.04, 29932.52, 36906.33, 2872.53, 27399.97, 0.000, 0.000, 0.000, 22:40:51.974
176, 26762.28, 12555.73, 14363.43, 18956.47, 29954.53, 36947.79, 2909.44, 27441.44, 0.000, 0.000, 0.000, 22:40:51.974
177, 26375.75, 12479.00, 14360.84, 18999.50, 29973.33, 36982.23, 2939.79, 27476.24, 0.000, 0.000, 0.000, 22:40:51.975
178, 25847.91, 12383.78, 14339.56, 18987.09, 29977.89, 37006.17, 2963.42, 27507.98, 0.000, 0.000, 0.000, 22:40:51.975
179, 25124.54, 12286.22, 14309.05, 18923.95, 29972.50, 37026.00, 2977.34, 27531.51, 0.000, 0.000, 0.000, 22:40:51.991
180, 24249.65, 12183.22, 14263.18, 18847.01, 29968.66, 37061.61, 3004.03, 27570.96, 0.000, 0.000, 0.000, 22:40:51.992
181, 23249.26, 12095.96, 14230.68, 18763.28, 29961.84, 37099.34, 3034.83, 27619.07, 0.000, 0.000, 0.000, 22:40:51.992
182, 23113.80, 12138.49, 14267.07, 18695.96, 29960.48, 37068.27, 3015.05, 27594.19, 0.000, 0.000, 0.000, 22:40:51.992
183, 23622.46, 12255.53, 14317.36, 18580.65, 29951.69, 36987.53, 2956.80, 27509.05, 0.000, 0.000, 0.000, 22:40:51.992
184, 24514.50, 12384.25, 14357.08, 18564.04, 29940.63, 36923.88, 2915.63, 27445.71, 0.000, 0.000, 0.000, 22:40:51.993
185, 25859.09, 12554.71, 14408.36, 18566.16, 29918.99, 36823.56, 2841.33, 27345.37, 0.000, 0.000, 0.000, 22:40:51.993
186, 27169.80, 12683.47, 14420.34, 18596.05, 29895.14, 36749.08, 2775.64, 27262.73, 0.000, 0.000, 0.000, 22:40:51.993
187, 27460.97, 12678.67, 14360.15, 18620.14, 29871.94, 36754.67, 2760.60, 27256.25, 0.000, 0.000, 0.000, 22:40:51.993
188, 27854.97, 12749.52, 14409.43, 18689.77, 29876.88, 36753.44, 2760.28, 27253.32, 0.000, 0.000, 0.000, 22:40:51.993
189, 28414.61, 12787.23, 14399.06, 18759.84, 29873.33, 36737.62, 2743.63, 27231.00, 0.000, 0.000, 0.000, 22:40:51.994
190, 27765.40, 12680.12, 14344.48, 18795.92, 29885.82, 36811.82, 2793.10, 27298.43, 0.000, 0.000, 0.000, 22:40:51.994
191, 27301.98, 12638.68, 14357.26, 18846.39, 29915.10, 36866.72, 2839.43, 27350.51, 0.000, 0.000, 0.000, 22:40:51.994
192, 26980.90, 12592.28, 14360.46, 18915.56, 29935.49, 36910.21, 2875.60, 27392.26, 0.000, 0.000, 0.000, 22:40:51.994
193, 26630.67, 12529.96, 14367.86, 18969.95, 29959.70, 36947.79, 2909.88, 27431.94, 0.000, 0.000, 0.000, 22:40:51.995
194, 26209.34, 12449.90, 14366.27, 18993.35, 29977.29, 36980.02, 2940.62, 27471.66, 0.000, 0.000, 0.000, 22:40:51.995
195, 25605.40, 12350.88, 14335.74, 18968.23, 29981.60, 37007.76, 2967.37, 27508.11, 0.000, 0.000, 0.000, 22:40:51.995
196, 24883.77, 12263.15, 14306.99, 18902.82, 29979.16, 37027.81, 2985.84, 27536.63, 0.056, 0.814, 0.578, 22:40:51.995
197, 23866.32, 12145.51, 14253.66, 18818.40, 29976.91, 37073.05, 3016.35, 27585.92, 0.000, 0.000, 0.000, 22:40:51.995
198, 23075.27, 12098.95, 14247.56, 18735.43, 29971.86, 37092.14, 3029.64, 27616.43, 0.000, 0.000, 0.000, 22:40:51.996
199, 23196.44, 12167.93, 14291.10, 18658.54, 29966.78, 37042.27, 2997.30, 27574.36, 0.000, 0.000, 0.000, 22:40:52.016
200, 23853.18, 12284.09, 14328.21, 18578.08, 29950.76, 36962.00, 2942.00, 27496.85, 0.000, 0.000, 0.000, 22:40:52.016
201, 24872.10, 12413.91, 14362.81, 18579.33, 29927.44, 36887.13, 2892.41, 27425.08, 0.000, 0.000, 0.000, 22:40:52.017
202, 26293.32, 12593.96, 14412.76, 18562.74, 29905.16, 36774.14, 2802.82, 27300.98, 0.000, 0.000, 0.000, 22:40:52.017
203, 27328.49, 12696.15, 14418.86, 18578.17, 29897.71, 36731.27, 2766.65, 27242.06, 0.000, 0.000, 0.000, 22:40:52.017
204, 27427.18, 12677.28, 14368.04, 18627.50, 29885.60, 36762.25, 2786.03, 27268.28, 0.000, 0.000, 0.000, 22:40:52.017
205, 28129.54, 12790.23, 14434.09, 18712.99, 29898.45, 36745.89, 2777.14, 27245.84, 0.000, 0.000, 0.000, 22:40:52.017
206, 28247.46, 12755.87, 14377.09, 18779.24, 29892.10, 36771.97, 2786.28, 27262.89, 0.000, 0.000, 0.000, 22:40:52.018
207, 27578.07, 12670.06, 14353.40, 18821.71, 29909.38, 36848.53, 2840.77, 27336.47, 0.000, 0.000, 0.000, 22:40:52.018
208, 27183.07, 12636.83, 14371.14, 18877.37, 29940.18, 36898.37, 2884.31, 27384.82, 0.000, 0.000, 0.000, 22:40:52.018
209, 26859.46, 12586.24, 14374.90, 18946.34, 29964.14, 36940.79, 2922.96, 27429.01, 0.000, 0.000, 0.000, 22:40:52.018
210, 26500.99, 12514.96, 14380.13, 19007.56, 29989.51, 36982.75, 2961.11, 27473.04, 0.000, 0.000, 0.000, 22:40:52.018
211, 26032.61, 12430.54, 14367.68, 19004.50, 30000.87, 37005.12, 2980.58, 27498.08, 0.000, 0.000, 0.000, 22:40:52.018
212, 25342.83, 12331.46, 14337.39, 18952.71, 29999.33, 37033.51, 2999.92, 27528.43, 0.000, 0.000, 0.000, 22:40:52.019
213, 24592.44, 12240.28, 14300.18, 18885.28, 29991.86, 37054.79, 3014.47, 27557.04, 0.000, 0.000, 0.000, 22:40:52.019
214, 23499.10, 12123.34, 14240.45, 18793.03, 29983.10, 37095.47, 3039.35, 27603.62, 0.000, 0.000, 0.000, 22:40:52.019
215, 23000.91, 12125.73, 14264.12, 18716.59, 29980.46, 37093.12, 3039.23, 27609.28, 0.000, 0.000, 0.000, 22:40:52.019
216, 23337.08, 12209.10, 14301.38, 18628.26, 29964.84, 37024.39, 2988.85, 27542.42, 0.000, 0.000, 0.000, 22:40:52.019
217, 24114.49, 12321.71, 14330.98, 18575.30, 29940.59, 36947.39, 2926.54, 27461.96, 0.000, 0.000, 0.000, 22:40:52.019
218, 25280.52, 12468.05, 14372.08, 18569.98, 29912.18, 36856.91, 2851.34, 27367.70, 0.000, 0.000, 0.000, 22:40:52.020
219, 26854.70, 12585.84, 14352.99, 18686.46, 29840.83, 36764.33, 2785.72, 27297.92, 0.000, 0.000, 0.000, 22:40:52.032
220, 27382.16, 12662.22, 14328.45, 18532.37, 29826.17, 36667.32, 2657.15, 27134.93, 0.000, 0.000, 0.000, 22:40:52.032
221, 27398.61, 12762.73, 14461.33, 18531.00, 29922.26, 36784.18, 2764.11, 27232.96, 0.000, 0.000, 0.000, 22:40:52.032
222, 28351.18, 12817.79, 14438.35, 18735.66, 29896.26, 36767.90, 2774.77, 27253.12, 0.000, 0.000, 0.000, 22:40:52.032
223, 28029.15, 12706.54, 14338.89, 18798.58, 29877.78, 36805.52, 2793.99, 27286.20, 0.000, 0.000, 0.000, 22:40:52.033
224, 27451.72, 12639.78, 14333.41, 18849.14, 29897.98, 36861.96, 2843.03, 27341.90, 0.000, 0.000, 0.000, 22:40:52.033
225, 27091.61, 12608.80, 14352.68, 18904.97, 29929.83, 36904.79, 2878.17, 27381.36, 0.000, 0.000, 0.000, 22:40:52.033
226, 26733.87, 12569.70, 14378.63, 18947.48, 29966.51, 36952.64, 2921.73, 27424.83, 0.000, 0.000, 0.000, 22:40:52.033
227, 26361.89, 12494.13, 14381.49, 19010.78, 29992.26, 37002.04, 2974.03, 27481.33, 0.000, 0.000, 0.000, 22:40:52.033
228, 25847.47, 12398.80, 14355.83, 19003.70, 29994.45, 37025.17, 2993.75, 27511.67, 0.000, 0.000, 0.000, 22:40:52.033
229, 25125.95, 12304.59, 14324.76, 18946.16, 29990.85, 37046.70, 3011.74, 27544.05, 0.000, 0.000, 0.000, 22:40:52.033
230, 24265.30, 12204.57, 14284.13, 18873.79, 29990.65, 37082.50, 3041.92, 27586.10, 0.000, 0.000, 0.000, 22:40:52.034
231, 23219.91, 12116.34, 14257.39, 18782.28, 29993.60, 37127.45, 3076.29, 27639.74, 0.000, 0.000, 0.000, 22:40:52.034
232, 23033.65, 12154.61, 14295.08, 18719.65, 29993.18, 37109.28, 3064.63, 27628.97, 0.000, 0.000, 0.000, 22:40:52.034
233, 23541.19, 12253.74, 14319.33, 18623.94, 29966.04, 37020.21, 2994.51, 27542.58, 0.000, 0.000, 0.000, 22:40:52.034
234, 24406.14, 12375.89, 14356.01, 18590.39, 29947.11, 36944.71, 2936.75, 27464.41, 0.000, 0.000, 0.000, 22:40:52.034
235, 25728.56, 12539.06, 14407.91, 18587.35, 29922.48, 36844.64, 2858.10, 27361.08, 0.048, 0.816, 0.578, 22:40:52.034
236, 27076.88, 12677.04, 14426.93, 18610.78, 29898.88, 36763.90, 2788.07, 27265.78, 0.000, 0.000, 0.000, 22:40:52.034
237, 27432.81, 12680.93, 14372.57, 18637.29, 29881.46, 36771.82, 2779.28, 27258.71, 0.000, 0.000, 0.000, 22:40:52.035
238, 27774.70, 12743.62, 14412.58, 18701.12, 29890.27, 36780.73, 2783.93, 27263.85, 0.000, 0.000, 0.000, 22:40:52.035
239, 28401.76, 12790.54, 14412.61, 18771.35, 29890.83, 36760.39, 2765.25, 27240.03, 0.000, 0.000, 0.000, 22:40:52.053
240, 27780.07, 12681.44, 14356.19, 18809.01, 29903.17, 36836.01, 2817.44, 27315.24, 0.000, 0.000, 0.000, 22:40:52.053
241, 27309.63, 12630.17, 14362.65, 18873.19, 29923.24, 36891.13, 2867.35, 27372.93, 0.000, 0.000, 0.000, 22:40:52.054
242, 26976.23, 12581.82, 14361.24, 18933.94, 29937.05, 36922.82, 2894.28, 27400.31, 0.000, 0.000, 0.000, 22:40:52.054
243, 26600.05, 12533.49, 14386.14, 18966.66, 29973.15, 36964.89, 2928.30, 27434.55, 0.000, 0.000, 0.000, 22:40:52.054
244, 26200.60, 12451.49, 14378.92, 19011.88, 29991.37, 37000.59, 2966.32, 27481.20, 0.000, 0.000, 0.000, 22:40:52.054
245, 25607.03, 12350.93, 14342.98, 18987.90, 29988.46, 37019.61, 2985.03, 27505.86, 0.000, 0.000, 0.000, 22:40:52.055
246, 24873.40, 12263.22, 14314.12, 18918.07, 29983.72, 37040.08, 3000.92, 27529.70, 0.000, 0.000, 0.000, 22:40:52.055
247, 23892.16, 12144.35, 14252.77, 18851.08, 29974.34, 37084.85, 3031.32, 27581.63, 0.000, 0.000, 0.000, 22:40:52.055
248, 23034.79, 12100.23, 14248.88, 18759.13, 29975.41, 37107.54, 3044.78, 27606.59, 0.000, 0.000, 0.000, 22:40:52.055
249, 23109.98, 12178.71, 14299.75, 18683.40, 29976.35, 37065.23, 3021.20, 27571.23, 0.000, 0.000, 0.000, 22:40:52.056
250, 23767.91, 12292.41, 14329.59, 18606.06, 29954.58, 36985.16, 2964.27, 27496.36, 0.000, 0.000, 0.000, 22:40:52.056
251, 24754.91, 12424.84, 14370.72, 18590.82, 29939.40, 36913.93, 2910.53, 27419.42, 0.000, 0.000, 0.000, 22:40:52.056
252, 26189.83, 12600.04, 14420.27, 18587.71, 29914.75, 36810.15, 2828.30, 27306.77, 0.000, 0.000, 0.000, 22:40:52.056
253, 27306.97, 12692.57, 14411.98, 18615.74, 29890.61, 36750.80, 2774.05, 27239.89, 0.000, 0.000, 0.000, 22:40:52.057
254, 27420.02, 12673.44, 14362.76, 18649.49, 29877.73, 36774.52, 2778.86, 27253.75, 0.000, 0.000, 0.000, 22:40:52.057
255, 28072.18, 12777.17, 14430.51, 18723.56, 29888.93, 36754.34, 2765.38, 27228.83, 0.000, 0.000, 0.000, 22:40:52.057
0, 28270.29, 12751.13, 14378.23, 18781.68, 29881.91, 36768.64, 2765.58, 27231.78, 0.000, 0.000, 0.000, 22:40:52.057
1, 27592.71, 12661.17, 14345.53, 18824.39, 29896.96, 36841.62, 2818.49, 27302.59, 0.000, 0.000, 0.000, 22:40:52.058
2, 27189.91, 12627.64, 14362.07, 18881.72, 29925.45, 36892.16, 2864.33, 27354.24, 0.000, 0.000, 0.000, 22:40:52.058
3, 26861.43, 12580.34, 14369.35, 18945.14, 29949.10, 36934.11, 2905.79, 27399.75, 0.000, 0.000, 0.000, 22:40:52.072
4, 26498.91, 12511.52, 14374.03, 19002.09, 29972.19, 36973.65, 2943.48, 27441.88, 0.000, 0.000, 0.000, 22:40:52.072
5, 26051.79, 12424.19, 14361.84, 19016.89, 29981.20, 36999.11, 2969.72, 27471.48, 0.000, 0.000, 0.000, 22:40:52.072
6, 25377.90, 12322.20, 14323.09, 18973.79, 29977.91, 37020.84, 2985.88, 27496.36, 0.000, 0.000, 0.000, 22:40:52.073
7, 24597.00, 12247.19, 14304.89, 18884.27, 29983.50, 37045.85, 3002.73, 27520.36, 0.000, 0.000, 0.000, 22:40:52.073
8, 23508.40, 12124.59, 14244.16, 18802.49, 29977.44, 37096.27, 3039.52, 27578.90, 0.000, 0.000, 0.000, 22:40:52.073
9, 22961.74, 12111.14, 14256.30, 18730.20, 29973.71, 37095.65, 3039.46, 27589.76, 0.000, 0.000, 0.000, 22:40:52.073
10, 23255.13, 12191.07, 14297.87, 18639.66, 29965.22, 37023.38, 2991.53, 27526.60, 0.000, 0.000, 0.000, 22:40:52.073
11, 24019.05, 12308.46, 14331.94, 18583.51, 29945.48, 36948.26, 2938.11, 27454.49, 0.000, 0.000, 0.000, 22:40:52.073
12, 25155.57, 12459.13, 14379.23, 18575.55, 29924.80, 36866.65, 2873.41, 27366.45, 0.000, 0.000, 0.000, 22:40:52.073
13, 26619.12, 12629.99, 14419.02, 18589.43, 29898.23, 36768.80, 2793.81, 27261.68, 0.000, 0.000, 0.000, 22:40:52.074
14, 27399.93, 12684.57, 14385.40, 18613.71, 29877.38, 36739.27, 2759.75, 27220.36, 0.000, 0.000, 0.000, 22:40:52.074
15, 27484.31, 12695.77, 14374.12, 18657.96, 29878.63, 36769.13, 2775.62, 27240.92, 0.000, 0.000, 0.000, 22:40:52.074
16, 28299.19, 12809.67, 14433.62, 18734.61, 29888.51, 36739.56, 2752.37, 27201.33, 0.000, 0.000, 0.000, 22:40:52.074
17, 28043.66, 12724.04, 14355.88, 18793.84, 29883.03, 36794.34, 2784.13, 27248.65, 0.000, 0.000, 0.000, 22:40:52.074
18, 27446.18, 12657.05, 14348.59, 18843.19, 29903.77, 36857.96, 2834.85, 27313.72, 0.000, 0.000, 0.000, 22:40:52.074
19, 27089.67, 12623.91, 14368.97, 18904.39, 29933.10, 36908.77, 2878.17, 27361.62, 0.048, 0.810, 0.580, 22:40:52.074
20, 26758.19, 12566.40, 14375.43, 18966.28, 29954.58, 36951.97, 2915.00, 27404.58, 0.000, 0.000, 0.000, 22:40:52.075
21, 26365.71, 12486.89, 14377.20, 19007.95, 29975.79, 36987.69, 2947.79, 27439.60, 0.000, 0.000, 0.000, 22:40:52.075
22, 25857.88, 12394.62, 14356.14, 19003.41, 29983.93, 37012.39, 2972.47, 27472.46, 0.000, 0.000, 0.000, 22:40:52.075
23, 25141.02, 12293.77, 14321.70, 18950.90, 29983.17, 37036.13, 2993.70, 27506.39, 0.000, 0.000, 0.000, 22:40:52.092
24, 24300.35, 12191.54, 14276.01, 18875.51, 29976.17, 37065.14, 3015.61, 27541.80, 0.000, 0.000, 0.000, 22:40:52.092
25, 23223.89, 12100.85, 14238.04, 18778.53, 29972.59, 37105.59, 3043.57, 27587.60, 0.000, 0.000, 0.000, 22:40:52.093
26, 22982.46, 12143.01, 14277.58, 18718.29, 29975.30, 37091.00, 3041.96, 27583.39, 0.000, 0.000, 0.000, 22:40:52.093
27, 23444.59, 12249.63, 14318.53, 18613.59, 29961.86, 37008.63, 2980.58, 27499.46, 0.000, 0.000, 0.000, 22:40:52.093
28, 24296.23, 12369.88, 14356.93, 18582.57, 29946.53, 36941.49, 2930.27, 27432.14, 0.000, 0.000, 0.000, 22:40:52.093
29, 25598.42, 12533.58, 14406.35, 18583.69, 29923.31, 36845.40, 2855.93, 27335.38, 0.000, 0.000, 0.000, 22:40:52.093
30, 26979.43, 12676.10, 14429.30, 18607.29, 29899.84, 36764.91, 2788.67, 27242.66, 0.000, 0.000, 0.000, 22:40:52.094
31, 27400.02, 12674.29, 14367.12, 18633.96, 29874.16, 36763.95, 2772.13, 27229.54, 0.000, 0.000, 0.000, 22:40:52.094
32, 27690.17, 12721.45, 14398.81, 18692.76, 29875.18, 36772.80, 2771.39, 27236.36, 0.000, 0.000, 0.000, 22:40:52.094
33, 28379.70, 12780.46, 14408.25, 18767.22, 29875.99, 36749.69, 2750.43, 27205.85, 0.000, 0.000, 0.000, 22:40:52.094
34, 27794.79, 12672.90, 14346.53, 18803.87, 29886.99, 36819.94, 2796.90, 27267.99, 0.000, 0.000, 0.000, 22:40:52.094
35, 27305.70, 12628.53, 14357.89, 18856.62, 29912.89, 36875.64, 2844.77, 27326.30, 0.000, 0.000, 0.000, 22:40:52.095
36, 26960.52, 12592.50, 14369.98, 18909.89, 29934.04, 36914.82, 2876.07, 27365.22, 0.000, 0.000, 0.000, 22:40:52.095
37, 26620.61, 12533.56, 14372.98, 18972.34, 29952.57, 36956.77, 2910.20, 27409.96, 0.000, 0.000, 0.000, 22:40:52.095
38, 26213.99, 12451.29, 14363.90, 19007.23, 29968.37, 36987.29, 2938.43, 27443.49, 0.000, 0.000, 0.000, 22:40:52.095
39, 25620.78, 12354.14, 14338.73, 18977.55, 29975.57, 37012.74, 2964.24, 27474.29, 0.000, 0.000, 0.000, 22:40:52.095
40, 24889.70, 12267.26, 14311.40, 18917.40, 29976.66, 37034.87, 2991.71, 27506.82, 0.000, 0.000, 0.000, 22:40:52.096
41, 23914.24, 12157.38, 14256.32, 18841.42, 29972.71, 37074.26, 3024.77, 27553.55, 0.000, 0.000, 0.000, 22:40:52.096
42, 23011.68, 12104.21, 14251.14, 18748.29, 29974.09, 37105.26, 3046.77, 27589.38, 0.000, 0.000, 0.000, 22:40:52.096
43, 23043.40, 12165.47, 14300.29, 18682.32, 29978.90, 37074.05, 3031.48, 27566.03, 0.000, 0.000, 0.000, 22:40:52.112
44, 23665.87, 12268.40, 14323.76, 18597.92, 29955.56, 36987.49, 2967.78, 27482.97, 0.000, 0.000, 0.000, 22:40:52.112
45, 24629.07, 12397.64, 14360.28, 18575.97, 29935.62, 36909.55, 2904.25, 27403.08, 0.000, 0.000, 0.000, 22:40:52.113
46, 26066.13, 12572.32, 14407.31, 18580.18, 29909.11, 36803.13, 2820.57, 27294.25, 0.000, 0.000, 0.000, 22:40:52.113
47, 27232.16, 12686.56, 14412.58, 18597.92, 29891.19, 36745.35, 2763.75, 27220.02, 0.000, 0.000, 0.000, 22:40:52.113
48, 27373.69, 12677.80, 14366.87, 18625.33, 29880.30, 36774.50, 2773.52, 27238.53, 0.000, 0.000, 0.000, 22:40:52.113
49, 27987.20, 12777.40, 14432.19, 18709.93, 29893.11, 36764.17, 2771.97, 27231.22, 0.000, 0.000, 0.000, 22:40:52.113
50, 28287.81, 12765.06, 14387.35, 18778.91, 29887.72, 36774.74, 2773.18, 27232.38, 0.000, 0.000, 0.000, 22:40:52.113
51, 27612.85, 12667.02, 14350.58, 18822.56, 29902.77, 36851.07, 2827.03, 27305.11, 0.000, 0.000, 0.000, 22:40:52.114
52, 27196.17, 12625.47, 14364.37, 18874.91, 29926.82, 36898.06, 2865.34, 27350.67, 0.000, 0.000, 0.000, 22:40:52.114
53, 26859.76, 12576.14, 14368.42, 18933.07, 29949.91, 36936.35, 2899.11, 27388.66, 0.000, 0.000, 0.000, 22:40:52.114
54, 26500.43, 12509.33, 14376.04, 18994.15, 29977.96, 36978.30, 2940.68, 27432.76, 0.000, 0.000, 0.000, 22:40:52.114
55, 26054.31, 12426.72, 14368.80, 19010.67, 29993.22, 37004.86, 2971.31, 27464.37, 0.000, 0.000, 0.000, 22:40:52.114
56, 25383.40, 12330.36, 14334.62, 18968.74, 29996.02, 37028.10, 2994.69, 27494.68, 0.000, 0.000, 0.000, 22:40:52.114
57, 24626.73, 12251.01, 14308.87, 18893.01, 29995.97, 37048.82, 3014.31, 27524.83, 0.000, 0.000, 0.000, 22:40:52.114
58, 23543.27, 12131.86, 14245.06, 18809.55, 29985.42, 37092.41, 3044.82, 27578.45, 0.000, 0.000, 0.000, 22:40:52.115
59, 22921.67, 12119.92, 14260.77, 18728.01, 29985.27, 37099.16, 3049.74, 27592.20, 0.046, 0.810, 0.582, 22:40:52.115
60, 23180.50, 12199.72, 14302.28, 18643.63, 29975.63, 37036.13, 3006.22, 27537.06, 0.000, 0.000, 0.000, 22:40:52.115
61, 23919.90, 12314.87, 14333.48, 18581.88, 29956.05, 36959.23, 2948.24, 27461.29, 0.000, 0.000, 0.000, 22:40:52.115
62, 25024.88, 12460.09, 14384.06, 18567.71, 29939.63, 36875.93, 2881.21, 27374.45, 0.000, 0.000, 0.000, 22:40:52.115
63, 26503.20, 12627.26, 14428.50, 18578.48, 29914.30, 36775.46, 2803.09, 27269.75, 0.000, 0.000, 0.000, 22:40:52.133
64, 27359.74, 12681.13, 14390.79, 18607.45, 29886.92, 36738.24, 2764.04, 27223.06, 0.000, 0.000, 0.000, 22:40:52.133
65, 27524.45, 12652.74, 14338.22, 18725.40, 29854.60, 36772.93, 2795.96, 27273.17, 0.000, 0.000, 0.000, 22:40:52.133
66, 28305.89, 12746.62, 14349.44, 18755.48, 29830.44, 36675.01, 2705.19, 27156.21, 0.000, 0.000, 0.000, 22:40:52.133
67, 27894.84, 12788.53, 14441.75, 18629.49, 29939.11, 36764.42, 2763.26, 27185.13, 0.000, 0.000, 0.000, 22:40:52.133
68, 27402.66, 12700.46, 14399.02, 18798.31, 29958.06, 36881.81, 2889.03, 27344.92, 0.000, 0.000, 0.000, 22:40:52.134
69, 27097.18, 12633.34, 14363.34, 18904.79, 29953.97, 36908.72, 2912.79, 27389.65, 0.000, 0.000, 0.000, 22:40:52.134
70, 26759.48, 12574.62, 14358.85, 18962.35, 29963.70, 36937.39, 2931.74, 27421.14, 0.000, 0.000, 0.000, 22:40:52.134
71, 26372.96, 12502.89, 14363.54, 19011.12, 29985.63, 36977.68, 2961.67, 27461.98, 0.000, 0.000, 0.000, 22:40:52.134
72, 25870.78, 12415.46, 14350.45, 19012.15, 29998.57, 37008.50, 2992.29, 27505.34, 0.000, 0.000, 0.000, 22:40:52.134
73, 25144.39, 12317.35, 14319.64, 18956.65, 30000.18, 37040.93, 3018.49, 27550.36, 0.000, 0.000, 0.000, 22:40:52.134
74, 24311.30, 12225.15, 14280.31, 18877.08, 29996.62, 37071.82, 3037.13, 27587.86, 0.000, 0.000, 0.000, 22:40:52.135
75, 23218.28, 12125.71, 14237.64, 18782.64, 29990.25, 37113.64, 3063.35, 27636.23, 0.000, 0.000, 0.000, 22:40:52.135
76, 22911.88, 12152.49, 14272.73, 18711.85, 29990.92, 37101.37, 3057.79, 27628.90, 0.000, 0.000, 0.000, 22:40:52.135
77, 23365.80, 12242.72, 14302.01, 18625.15, 29970.11, 37020.10, 2998.67, 27556.04, 0.000, 0.000, 0.000, 22:40:52.135
78, 24198.00, 12366.82, 14339.85, 18578.01, 29955.07, 36945.13, 2939.12, 27482.38, 0.000, 0.000, 0.000, 22:40:52.135
79, 25476.36, 12526.61, 14395.19, 18575.60, 29937.61, 36853.29, 2870.99, 27392.15, 0.000, 0.000, 0.000, 22:40:52.135
80, 26887.87, 12669.06, 14423.16, 18597.99, 29916.33, 36769.27, 2800.92, 27300.71, 0.000, 0.000, 0.000, 22:40:52.135
81, 27367.72, 12677.15, 14374.83, 18621.37, 29899.88, 36769.76, 2786.64, 27290.90, 0.000, 0.000, 0.000, 22:40:52.136
82, 27605.92, 12716.09, 14404.85, 18679.42, 29910.39, 36788.73, 2799.29, 27308.49, 0.000, 0.000, 0.000, 22:40:52.136
83, 28341.77, 12785.24, 14426.40, 18758.10, 29914.93, 36766.41, 2781.61, 27283.57, 0.000, 0.000, 0.000, 22:40:52.136
84, 27805.26, 12675.25, 14354.07, 18806.89, 29920.36, 36837.20, 2827.52, 27353.93, 0.000, 0.000, 0.000, 22:40:52.153
85, 27296.26, 12623.68, 14355.41, 18863.38, 29939.13, 36891.91, 2870.46, 27411.57, 0.000, 0.000, 0.000, 22:40:52.153
86, 26956.96, 12586.56, 14360.57, 18927.88, 29954.71, 36935.96, 2904.25, 27453.66, 0.000, 0.000, 0.000, 22:40:52.153
87, 26612.01, 12537.41, 14364.04, 18981.79, 29975.41, 36974.41, 2935.03, 27492.38, 0.000, 0.000, 0.000, 22:40:52.153
88, 26174.29, 12480.27, 14377.29, 18992.43, 30004.71, 37004.79, 2964.15, 27524.07, 0.000, 0.000, 0.000, 22:40:52.153
89, 25606.34, 12389.59, 14349.28, 18981.46, 30009.61, 37036.79, 2995.45, 27565.09, 0.000, 0.000, 0.000, 22:40:52.154
90, 24879.88, 12296.25, 14312.40, 18928.73, 30005.38, 37058.50, 3014.11, 27595.84, 0.000, 0.000, 0.000, 22:40:52.154
91, 23922.24, 12179.71, 14256.32, 18848.76, 29998.48, 37091.69, 3038.47, 27641.37, 0.000, 0.000, 0.000, 22:40:52.154
92, 22974.57, 12109.53, 14245.68, 18753.67, 29998.37, 37123.99, 3061.81, 27685.43, 0.000, 0.000, 0.000, 22:40:52.154
93, 22953.83, 12156.11, 14288.75, 18681.23, 29995.82, 37085.23, 3041.80, 27658.67, 0.000, 0.000, 0.000, 22:40:52.154
94, 23555.97, 12255.15, 14316.87, 18593.32, 29970.40, 36996.34, 2978.24, 27578.86, 0.000, 0.000, 0.000, 22:40:52.155
95, 24498.72, 12382.29, 14356.44, 18571.62, 29954.64, 36920.03, 2918.04, 27502.77, 0.000, 0.000, 0.000, 22:40:52.155
96, 25907.93, 12563.94, 14412.11, 18568.24, 29934.39, 36816.68, 2835.52, 27396.69, 0.000, 0.000, 0.000, 22:40:52.155
97, 27127.42, 12682.96, 14413.61, 18595.38, 29914.26, 36752.26, 2778.72, 27326.39, 0.000, 0.000, 0.000, 22:40:52.155
98, 27309.47, 12677.64, 14362.90, 18616.01, 29900.04, 36770.83, 2779.37, 27338.22, 0.046, 0.808, 0.586, 22:40:52.155
99, 27863.26, 12775.50, 14428.21, 18685.83, 29910.34, 36760.88, 2776.09, 27328.38, 0.000, 0.000, 0.000, 22:40:52.156
100, 28246.79, 12775.32, 14387.59, 18759.08, 29903.41, 36765.24, 2770.79, 27327.98, 0.000, 0.000, 0.000, 22:40:52.156
101, 27571.01, 12678.76, 14345.10, 18799.31, 29917.67, 36839.61, 2821.17, 27402.41, 0.000, 0.000, 0.000, 22:40:52.156
102, 27151.42, 12640.65, 14358.18, 18859.42, 29941.46, 36894.04, 2864.80, 27456.86, 0.000, 0.000, 0.000, 22:40:52.157
103, 26820.15, 12593.04, 14364.64, 18924.30, 29961.57, 36937.51, 2901.10, 27504.25, 0.000, 0.000, 0.000, 22:40:52.157
104, 26452.08, 12530.43, 14379.46, 18979.27, 29990.97, 36982.41, 2937.98, 27552.17, 0.000, 0.000, 0.000, 22:40:52.173
105, 26010.30, 12443.82, 14375.48, 19003.97, 30008.06, 37016.81, 2971.93, 27594.10, 0.000, 0.000, 0.000, 22:40:52.173
106, 25354.72, 12331.88, 14337.82, 18969.86, 30004.33, 37038.56, 2992.99, 27627.27, 0.000, 0.000, 0.000, 22:40:52.173
107, 24589.80, 12244.71, 14308.33, 18881.72, 30000.60, 37052.78, 3001.88, 27644.99, 0.000, 0.000, 0.000, 22:40:52.173
108, 23503.33, 12135.50, 14261.62, 18790.71, 30004.80, 37105.17, 3040.91, 27705.17, 0.000, 0.000, 0.000, 22:40:52.173
109, 22848.13, 12116.46, 14270.36, 18729.35, 30005.07, 37120.08, 3058.88, 27737.80, 0.000, 0.000, 0.000, 22:40:52.173
110, 23070.06, 12193.84, 14306.43, 18647.99, 29991.26, 37055.44, 3012.68, 27679.97, 0.000, 0.000, 0.000, 22:40:52.173
111, 23784.89, 12310.92, 14339.52, 18574.88, 29968.08, 36972.64, 2948.40, 27599.08, 0.000, 0.000, 0.000, 22:40:52.174
112, 24863.92, 12456.13, 14386.10, 18559.81, 29952.52, 36892.40, 2885.45, 27517.52, 0.000, 0.000, 0.000, 22:40:52.174
113, 26335.38, 12631.78, 14430.60, 18568.55, 29928.38, 36794.05, 2806.06, 27414.30, 0.000, 0.000, 0.000, 22:40:52.174
114, 27251.00, 12697.11, 14397.99, 18595.51, 29900.40, 36752.70, 2760.51, 27362.87, 0.000, 0.000, 0.000, 22:40:52.174
115, 27320.74, 12696.42, 14370.09, 18630.98, 29893.98, 36778.32, 2765.76, 27380.91, 0.000, 0.000, 0.000, 22:40:52.174
116, 28122.52, 12812.42, 14435.07, 18715.36, 29904.87, 36751.27, 2749.13, 27353.68, 0.000, 0.000, 0.000, 22:40:52.174
117, 28013.48, 12744.67, 14360.84, 18768.33, 29899.41, 36792.91, 2770.32, 27391.30, 0.000, 0.000, 0.000, 22:40:52.174
118, 27375.99, 12671.36, 14350.11, 18810.58, 29920.92, 36858.50, 2824.17, 27461.75, 0.000, 0.000, 0.000, 22:40:52.175
119, 26997.64, 12635.08, 14368.06, 18868.54, 29950.40, 36905.84, 2868.31, 27508.58, 0.000, 0.000, 0.000, 22:40:52.175
120, 26659.86, 12577.01, 14371.14, 18931.73, 29971.10, 36946.54, 2908.25, 27552.44, 0.000, 0.000, 0.000, 22:40:52.175
121, 26270.96, 12502.09, 14373.20, 18981.35, 29994.19, 36981.81, 2946.34, 27592.06, 0.000, 0.000, 0.000, 22:40:52.175
122, 25770.82, 12416.86, 14357.87, 18978.98, 30004.31, 37005.34, 2974.12, 27623.54, 0.000, 0.000, 0.000, 22:40:52.175
123, 25056.71, 12321.89, 14321.92, 18930.45, 30002.68, 37030.89, 2996.88, 27658.47, 0.000, 0.000, 0.000, 22:40:52.175
124, 24258.32, 12230.74, 14282.52, 18867.87, 29996.46, 37063.80, 3020.23, 27698.33, 0.000, 0.000, 0.000, 22:40:52.195
125, 23168.32, 12126.40, 14236.92, 18779.80, 29990.81, 37112.07, 3053.11, 27752.15, 0.000, 0.000, 0.000, 22:40:52.196
126, 22817.00, 12143.88, 14271.05, 18715.47, 29994.65, 37101.77, 3056.18, 27756.57, 0.000, 0.000, 0.000, 22:40:52.196
127, 23234.17, 12231.28, 14298.12, 18621.75, 29972.32, 37015.09, 2993.81, 27679.51, 0.000, 0.000, 0.000, 22:40:52.196
128, 24019.88, 12362.88, 14349.48, 18555.17, 29964.44, 36941.53, 2932.79, 27597.43, 0.000, 0.000, 0.000, 22:40:52.196
129, 25266.52, 12517.58, 14400.65, 18561.04, 29944.32, 36854.83, 2867.97, 27513.46, 0.000, 0.000, 0.000, 22:40:52.197
130, 26695.25, 12662.73, 14425.17, 18584.22, 29916.65, 36762.56, 2793.10, 27418.32, 0.000, 0.000, 0.000, 22:40:52.197
131, 27247.40, 12680.79, 14370.67, 18610.26, 29891.72, 36750.87, 2768.24, 27396.31, 0.000, 0.000, 0.000, 22:40:52.197
132, 27440.43, 12722.37, 14392.27, 18652.73, 29899.50, 36768.15, 2777.00, 27407.26, 0.000, 0.000, 0.000, 22:40:52.197
133, 28214.61, 12807.86, 14425.50, 18735.90, 29904.78, 36745.44, 2762.92, 27379.90, 0.000, 0.000, 0.000, 22:40:52.197
134, 27729.84, 12703.90, 14350.00, 18784.52, 29906.72, 36813.39, 2804.72, 27442.49, 0.000, 0.000, 0.000, 22:40:52.198
135, 27200.87, 12653.81, 14358.78, 18836.57, 29934.33, 36875.04, 2857.27, 27505.52, 0.000, 0.000, 0.000, 22:40:52.198
136, 26859.58, 12613.04, 14368.62, 18905.53, 29957.91, 36920.16, 2897.52, 27549.51, 0.000, 0.000, 0.000, 22:40:52.198
137, 26509.91, 12551.67, 14375.05, 18964.47, 29982.79, 36960.33, 2932.01, 27587.93, 0.000, 0.000, 0.000, 22:40:52.198
138, 26098.43, 12471.07, 14374.54, 19002.49, 30001.18, 36992.98, 2963.98, 27622.04, 0.050, 0.808, 0.584, 22:40:52.198
139, 25528.62, 12378.91, 14349.84, 18983.36, 30004.49, 37016.88, 2988.07, 27657.27, 0.000, 0.000, 0.000, 22:40:52.199